File: 9jxzs_src/data/Data_RedSeaMP_DSC_Crystallinity_Final.txt
"site" "crystallinity"
"1" "Wreck" 42.7167
"2" "Wreck" 42.2218
"3" "Wreck" 41.6758
"4" "Wreck" 42.4096
"5" "Wreck" 41.6177
"6" "Wreck" 42.0512
"7" "Wreck" 40.8908
"8" "Wreck" 42.5085
"9" "Wreck" 42.8498
"10" "Wreck" 42.6826
"11" "Beach" 43.8328
"12" "Beach" 44.4505
"13" "Beach" 46.6621
"14" "Beach" 46.9352
"15" "Beach" 49.2799
"16" "Beach" 39.9898
"17" "Beach" 41.3038
"18" "Beach" 45.9488
"19" "Beach" 46.6416
"20" "Beach" 45.8498